# Created by:        SpecsLab Prodigy, Version 4.91.3-r105809 
#
# XY-Serializer Export Settings:
#   Comment Prefix:           #
#   Output Meta Data:         yes
#   Energy Axis:              Binding Energy
#   Count Rate:               Counts per Second
#   Separate Scan Data:       no
#   Separate Channel Data:    no
#   External Channel Data:    yes
#   Transmission Function:    yes
#   Error Bar:                no
#   Operation Results:        yes
#   Time Zone Format:         UTC
#
# Group:                        Spectrum Group
#
# Region:                       Survey (0)
# Spectrum ID:                  10
# Acquisition Date:             06/10/22 17:57:25 UTC
# Analysis Method:              XPS
# Analyzer Lens:                MediumArea:3.5kV
# Analyzer Slit:                5:7x20\B:open
# Scan Mode:                    FixedAnalyzerTransmission
# Curves/Scan:                  1
# Values/Curve:                 1103
# Dwell Time:                   0.1
# Excitation Energy:            1486.71
# Binding Energy:               1100
# Pass Energy:                  30
# Bias Voltage:                 90
# Detector Voltage:             1750
# Eff. Workfunction:            4.341
# Source:                       Focus
# Comment:                      sin irradiar

# Cycle: 0
#
# Number of Scans: 1

# Cycle: 0, Curve: 0
#
# Acquisition Date:             06/10/22 17:57:25 UTC
# ColumnLabels:                 energy counts/s transmission
#
1100  34533.572  1
1099  33984.171  1
1098  34245.547  1
1097  33659.289  1
1096  32693.303  1
1095  33502.442  1
1094  33718.802  1
1093  33730.358  1
1092  33934.206  1
1091  33783.608  1
1090  33947.804  1
1089  34150.557  1
1088  32889.32  1
1087  33950.527  1
1086  32624.609  1
1085  32863.02  1
1084  33697.834  1
1083  34159.85  1
1082  32125.301  1
1081  33661.115  1
1080  33573.18  1
1079  33081.01  1
1078  32927.971  1
1077  32452.098  1
1076  33413.824  1
1075  33182.884  1
1074  32794.762  1
1073  33573.611  1
1072  35260.94  1
1071  33816.881  1
1070  33404.745  1
1069  33129.609  1
1068  34285.551  1
1067  33840.12  1
1066  33624.325  1
1065  33880.017  1
1064  33536.731  1
1063  34699.473  1
1062  34858.69  1
1061  34134.166  1
1060  34006.212  1
1059  34107.69  1
1058  34315.301  1
1057  34467.402  1
1056  34097.205  1
1055  33234.141  1
1054  32922.675  1
1053  33824.881  1
1052  33683.258  1
1051  34373.503  1
1050  35107.343  1
1049  35595.991  1
1048  33981.404  1
1047  35166.819  1
1046  35212.448  1
1045  34974.426  1
1044  33260.262  1
1043  33762.632  1
1042  35084.588  1
1041  34819.97  1
1040  35504.219  1
1039  35448.085  1
1038  34524.483  1
1037  35090.418  1
1036  34756.307  1
1035  35422.58  1
1034  34314.547  1
1033  34067.506  1
1032  36319.943  1
1031  35082.61  1
1030  34639.446  1
1029  34302.397  1
1028  34455.388  1
1027  35305.618  1
1026  35859.787  1
1025  35516.773  1
1024  35826.14  1
1023  35826.206  1
1022  35576.862  1
1021  36056.827  1
1020  34990.889  1
1019  34161.833  1
1018  35748.38  1
1017  35663.615  1
1016  35625.812  1
1015  34548.959  1
1014  35308.409  1
1013  35000.415  1
1012  36080.735  1
1011  36229.551  1
1010  35432.401  1
1009  35590.345  1
1008  35794.834  1
1007  36227.2  1
1006  36392.881  1
1005  34870.481  1
1004  36620.051  1
1003  36455.973  1
1002  38090.527  1
1001  37027.171  1
1000  36255.633  1
999  35507.42  1
998  36894.25  1
997  36071.808  1
996  37195.618  1
995  36018.004  1
994  36253.382  1
993  35529.989  1
992  36573.93  1
991  35700.997  1
990  35934.457  1
989  36101.613  1
988  37198.995  1
987  36845.163  1
986  36067.906  1
985  36947.051  1
984  36646.239  1
983  38877.617  1
982  38939.437  1
981  39306.843  1
980  41248.566  1
979  39605.357  1
978  38382.529  1
977  37762.536  1
976  37253.728  1
975  37472.522  1
974  36371.821  1
973  35734.386  1
972  36285.039  1
971  35797.127  1
970  35838.898  1
969  34951.83  1
968  36101.612  1
967  35846.263  1
966  34576.953  1
965  34159.72  1
964  34280.67  1
963  34750.708  1
962  34695.865  1
961  34517.271  1
960  34840.918  1
959  34335.482  1
958  35872.784  1
957  34520.166  1
956  34409.465  1
955  34127.44  1
954  34464.841  1
953  33846.705  1
952  33745.42  1
951  33991.968  1
950  34879.119  1
949  35080.741  1
948  34603.824  1
947  34151.62  1
946  35211.825  1
945  35698.53  1
944  35055.298  1
943  33974.443  1
942  34748.854  1
941  35606.784  1
940  35723.946  1
939  36462.244  1
938  36140.668  1
937  35153.438  1
936  34447.475  1
935  35984.182  1
934  36313.693  1
933  35530.37  1
932  35378.071  1
931  35421.255  1
930  36077.251  1
929  35639.701  1
928  35463.537  1
927  35203.635  1
926  34723.799  1
925  35602.2  1
924  35641.915  1
923  35292.688  1
922  35756.459  1
921  35819.834  1
920  35464.033  1
919  35273.294  1
918  36026.351  1
917  36118.51  1
916  35356.102  1
915  36379.384  1
914  36313.064  1
913  36856.096  1
912  37671.092  1
911  36807.392  1
910  36468.321  1
909  36307.505  1
908  35594.791  1
907  36929.421  1
906  37008.279  1
905  36477.853  1
904  35648.768  1
903  37696.293  1
902  37035.064  1
901  36291.66  1
900  36358.337  1
899  35400.567  1
898  35826.914  1
897  35746.766  1
896  36028.391  1
895  35787.044  1
894  36902.352  1
893  36886.24  1
892  36284.242  1
891  36863.525  1
890  36936.771  1
889  36860.863  1
888  36216.087  1
887  37849.404  1
886  37347.173  1
885  36825.256  1
884  36441.593  1
883  36646.118  1
882  37694.461  1
881  37556.65  1
880  36622.907  1
879  37233.277  1
878  37038.403  1
877  38001.306  1
876  37560.819  1
875  37063.543  1
874  36859.269  1
873  37209.492  1
872  38573.99  1
871  37994.296  1
870  38390.427  1
869  36816.257  1
868  37299.533  1
867  38335.309  1
866  36164.947  1
865  37606.401  1
864  38691.939  1
863  38543.301  1
862  37195.845  1
861  37284.637  1
860  37503.563  1
859  37599.73  1
858  36935.21  1
857  37293.759  1
856  37955.582  1
855  38544.084  1
854  38311.895  1
853  37906.092  1
852  37452.058  1
851  37322.876  1
850  37801.611  1
849  37648.573  1
848  38283.128  1
847  37285.881  1
846  39136.994  1
845  37828.468  1
844  38773.828  1
843  38468.339  1
842  38276.53  1
841  38636.381  1
840  40039.897  1
839  40235.399  1
838  39108.135  1
837  39534.19  1
836  39381.994  1
835  39354.106  1
834  38695.52  1
833  39448.304  1
832  40023.372  1
831  39005.935  1
830  39210.004  1
829  38479.129  1
828  38791.461  1
827  39403.27  1
826  39670.807  1
825  38537.832  1
824  39244.998  1
823  39098.506  1
822  40316.115  1
821  41065.81  1
820  40207.917  1
819  39244.951  1
818  39868.681  1
817  40090.675  1
816  40871.19  1
815  40516.855  1
814  39571.117  1
813  39859.316  1
812  40137.772  1
811  39761.545  1
810  40489.797  1
809  40809.949  1
808  40884.513  1
807  40287.437  1
806  41005.384  1
805  40186.543  1
804  40435.708  1
803  41597.818  1
802  41664.549  1
801  40363.531  1
800  40269.243  1
799  41870.772  1
798  41233.581  1
797  41000.17  1
796  40285.79  1
795  39938.647  1
794  42495.583  1
793  42272.395  1
792  42460.636  1
791  40865.523  1
790  40745.044  1
789  41293.566  1
788  40560.458  1
787  41549.122  1
786  41714.661  1
785  42042.837  1
784  40661.919  1
783  41489.019  1
782  41834.006  1
781  41645.12  1
780  41946.271  1
779  41268.146  1
778  41769.729  1
777  42246.058  1
776  42325.807  1
775  41992.09  1
774  40854.571  1
773  41524.736  1
772  41564.746  1
771  42216.988  1
770  42004.954  1
769  41769.854  1
768  42837.843  1
767  42308.531  1
766  43275.793  1
765  44162.013  1
764  43431.385  1
763  44817.652  1
762  44429.014  1
761  42835.652  1
760  43593.646  1
759  42365.951  1
758  43064.452  1
757  41853.706  1
756  42000.899  1
755  41642.229  1
754  41528.182  1
753  42399.603  1
752  42309.199  1
751  41861.103  1
750  40716.121  1
749  41251.924  1
748  41202.171  1
747  40761.497  1
746  40959.423  1
745  40445.217  1
744  40883.976  1
743  41691.439  1
742  40933.938  1
741  41286.206  1
740  41418.544  1
739  41618.39  1
738  41421.572  1
737  41547.171  1
736  42501.336  1
735  41636.532  1
734  41279.323  1
733  41329.349  1
732  42217.666  1
731  42754.451  1
730  41892.168  1
729  40755.661  1
728  41655.635  1
727  41248.748  1
726  42305.74  1
725  42078.07  1
724  42351.369  1
723  42140.158  1
722  42437.322  1
721  42807.824  1
720  43293.692  1
719  42761.507  1
718  43843.266  1
717  42166.315  1
716  42684.927  1
715  42301.478  1
714  42462.952  1
713  41825.47  1
712  41888.838  1
711  43044.927  1
710  43461.937  1
709  43208.261  1
708  43589.849  1
707  42680.181  1
706  42831.603  1
705  44242.639  1
704  44115.009  1
703  43093.385  1
702  43813.885  1
701  45480.538  1
700  44427.738  1
699  43923.767  1
698  44690.683  1
697  44171.717  1
696  44569.027  1
695  43930.831  1
694  43423.213  1
693  45496.12  1
692  44303.873  1
691  44738.838  1
690  44905.24  1
689  45054.432  1
688  45912.372  1
687  45191.44  1
686  44346.553  1
685  44491.148  1
684  45144.264  1
683  43618.657  1
682  44922.303  1
681  44698.715  1
680  44027  1
679  44349.455  1
678  44447.79  1
677  44848.621  1
676  44650.7  1
675  44667.905  1
674  45124.325  1
673  45212.429  1
672  45149.589  1
671  45357.73  1
670  46262.742  1
669  45442.84  1
668  45052.463  1
667  44555.258  1
666  46463.588  1
665  46331.252  1
664  46374.524  1
663  45646.268  1
662  46787.573  1
661  47055.33  1
660  46093.701  1
659  45627.347  1
658  45628.962  1
657  44139.358  1
656  46028.361  1
655  46049.507  1
654  45348.615  1
653  45695.5  1
652  46099.441  1
651  47004.424  1
650  47555.394  1
649  46935.253  1
648  48222.194  1
647  47926.68  1
646  48838.436  1
645  49098.272  1
644  50784.326  1
643  51132.009  1
642  49413.784  1
641  48414.113  1
640  48702.866  1
639  48228.727  1
638  47835.779  1
637  46105.781  1
636  46118.218  1
635  45733.891  1
634  44992.876  1
633  44684.567  1
632  44685.406  1
631  44949.41  1
630  44694.526  1
629  44276.617  1
628  46422.944  1
627  45175.212  1
626  44815.047  1
625  43954.956  1
624  45671.124  1
623  45203.404  1
622  44908.676  1
621  45785.131  1
620  45640.276  1
619  45116.749  1
618  45574.395  1
617  46273.571  1
616  46450.803  1
615  45676.558  1
614  44828.513  1
613  45966.171  1
612  46224.48  1
611  46119.28  1
610  44993.923  1
609  46141.788  1
608  47018.825  1
607  46717.154  1
606  45854.432  1
605  47430.089  1
604  47472.109  1
603  46728.524  1
602  46335.646  1
601  47062.421  1
600  46797.221  1
599  47145.552  1
598  46833.061  1
597  47196.108  1
596  47161.328  1
595  46167.234  1
594  46879.435  1
593  46506.172  1
592  45872.562  1
591  48135.222  1
590  47517.623  1
589  47305.352  1
588  46598.647  1
587  46856.229  1
586  46965.009  1
585  48164.543  1
584  49027.24  1
583  48759.439  1
582  48450.77  1
581  48297.22  1
580  49391.822  1
579  49289.083  1
578  48916.564  1
577  49142.754  1
576  50014.807  1
575  50245.613  1
574  47269.927  1
573  49060.162  1
572  50153.156  1
571  49762.863  1
570  48915.324  1
569  49938.002  1
568  50711.525  1
567  48665.008  1
566  49404.577  1
565  49743.544  1
564  49253.416  1
563  48435.664  1
562  48349.255  1
561  50043.958  1
560  49949.555  1
559  49796.07  1
558  49627.204  1
557  49772.1  1
556  49599.089  1
555  50490.279  1
554  51022.403  1
553  50279.295  1
552  52213.929  1
551  55156.985  1
550  59355.082  1
549  62458.472  1
548  66068.424  1
547  67529.267  1
546  60961.974  1
545  55321.384  1
544  51263.94  1
543  48127.193  1
542  46807.287  1
541  44806.028  1
540  43598.092  1
539  44045.343  1
538  43855.516  1
537  44096.218  1
536  45275.798  1
535  55756.57  1
534  71998.003  1
533  57344.995  1
532  45918.711  1
531  42716.895  1
530  42326.225  1
529  41315.118  1
528  40980.833  1
527  40131.126  1
526  40693.652  1
525  41214.875  1
524  40190.579  1
523  40198.426  1
522  41054.72  1
521  42252.966  1
520  40713.526  1
519  40869.454  1
518  41421.533  1
517  42108.968  1
516  42255.828  1
515  41624.023  1
514  40886.28  1
513  40529.426  1
512  40993.84  1
511  41697.15  1
510  41625.184  1
509  41930.25  1
508  41312.727  1
507  41309.744  1
506  42674.945  1
505  41511.412  1
504  41420.127  1
503  42625.721  1
502  42689.572  1
501  42358.44  1
500  42714.786  1
499  42453.6  1
498  43058.599  1
497  42012.914  1
496  41955.88  1
495  42721.532  1
494  42465.762  1
493  42624.085  1
492  43242.283  1
491  43155.731  1
490  41996.437  1
489  42507.378  1
488  42477.629  1
487  42644.458  1
486  42624.287  1
485  42904.823  1
484  42341.885  1
483  44369.549  1
482  42477.518  1
481  43073.201  1
480  43072.256  1
479  43146.023  1
478  42903.101  1
477  43602.5  1
476  43091.333  1
475  44452.426  1
474  43218.627  1
473  42738.056  1
472  43010.883  1
471  44268.568  1
470  43620.011  1
469  43048.27  1
468  43946.3  1
467  43848.448  1
466  43117.39  1
465  44164.908  1
464  44120.01  1
463  43960.866  1
462  43302.974  1
461  44879.372  1
460  45238.188  1
459  44229.89  1
458  43890.261  1
457  45262.066  1
456  44401.044  1
455  44121.157  1
454  45321.885  1
453  44480.409  1
452  43983.514  1
451  45032.501  1
450  45017.242  1
449  43911.676  1
448  45218.803  1
447  45355.647  1
446  45317.133  1
445  44467.763  1
444  45019.679  1
443  46482.095  1
442  46549.588  1
441  46273.766  1
440  45888.778  1
439  46921.896  1
438  46424.276  1
437  46393.94  1
436  45684.905  1
435  46820.99  1
434  47510.678  1
433  46719.339  1
432  45885.212  1
431  46583.728  1
430  46720.428  1
429  47211.073  1
428  46239.793  1
427  47332.368  1
426  47767.05  1
425  47263.689  1
424  46627.863  1
423  46397.873  1
422  46192.701  1
421  46662.321  1
420  46539.402  1
419  46795.631  1
418  47209.936  1
417  48102.659  1
416  48866.582  1
415  49310.62  1
414  48830.698  1
413  48136.483  1
412  48086.487  1
411  47934.468  1
410  48996.099  1
409  47975.664  1
408  47034.123  1
407  48025.806  1
406  47750.296  1
405  49356.282  1
404  49995.667  1
403  48928.749  1
402  49393.2  1
401  48546.637  1
400  50639.967  1
399  51412.174  1
398  51690.767  1
397  50710.971  1
396  49781.521  1
395  50619.448  1
394  51621.87  1
393  50975.111  1
392  50760.686  1
391  52149.952  1
390  50835.489  1
389  49526.055  1
388  50097.955  1
387  50638.388  1
386  52029.971  1
385  52155.673  1
384  50569.453  1
383  52102.288  1
382  52421.88  1
381  52600.448  1
380  51871.122  1
379  52262.468  1
378  51960.138  1
377  51886.521  1
376  52286.203  1
375  53030.51  1
374  51249.017  1
373  52243.391  1
372  51684.108  1
371  52273.194  1
370  52734.979  1
369  52940.185  1
368  51978.657  1
367  51777.931  1
366  53150.774  1
365  51958.36  1
364  51872.663  1
363  52634.919  1
362  53290.556  1
361  54164.692  1
360  55761.738  1
359  57280.667  1
358  60795.879  1
357  67948.73  1
356  77215.275  1
355  86950.059  1
354  86542.654  1
353  75535.64  1
352  62428.24  1
351  53931.934  1
350  49134.716  1
349  46334.619  1
348  43889.16  1
347  41467.343  1
346  40967.174  1
345  40517.309  1
344  41554.491  1
343  41477.325  1
342  42785.143  1
341  46662.826  1
340  52996.606  1
339  62262.586  1
338  77479.711  1
337  94528.015  1
336  95223.994  1
335  76401.732  1
334  57250.48  1
333  43378.325  1
332  37208.822  1
331  32129.598  1
330  29952.006  1
329  27772.79  1
328  26056.636  1
327  26199.754  1
326  25574.538  1
325  24022.71  1
324  24215.311  1
323  23675.508  1
322  22962.736  1
321  23127.681  1
320  23294.305  1
319  24216.425  1
318  23519.559  1
317  23532.35  1
316  22113.028  1
315  21742.444  1
314  23583.988  1
313  23328.663  1
312  22050.28  1
311  22794.735  1
310  22753.137  1
309  21766.545  1
308  21895.903  1
307  22058.943  1
306  22419.659  1
305  21981.881  1
304  22967.562  1
303  23548.124  1
302  22915.8  1
301  22446.197  1
300  22603.039  1
299  22044.168  1
298  22437.097  1
297  22912.501  1
296  22807.046  1
295  22606.076  1
294  22474.493  1
293  22183.005  1
292  23252.601  1
291  22634.682  1
290  22572.228  1
289  23011.795  1
288  23574.385  1
287  24743.036  1
286  25617.405  1
285  24669.425  1
284  22112.934  1
283  22197.159  1
282  22434.125  1
281  22371.348  1
280  22930.292  1
279  22997.504  1
278  22177.296  1
277  22030.478  1
276  22112.562  1
275  22326.311  1
274  22486.256  1
273  23452.773  1
272  23048.499  1
271  21977.151  1
270  22168.123  1
269  21728.231  1
268  22585.148  1
267  22334.691  1
266  21971.254  1
265  23065.082  1
264  22101.976  1
263  22857.174  1
262  22894.547  1
261  22452.911  1
260  22886.212  1
259  23198.655  1
258  23502.984  1
257  22492.295  1
256  22941.082  1
255  22781.753  1
254  23338.066  1
253  23082.016  1
252  23304.84  1
251  22642.243  1
250  22597.948  1
249  23571.566  1
248  24554.175  1
247  24495.163  1
246  23263.601  1
245  23501.3  1
244  23975.635  1
243  23682.973  1
242  22794.111  1
241  23844.083  1
240  23420.7  1
239  23383.828  1
238  23518.554  1
237  22718.353  1
236  23293.762  1
235  23501.214  1
234  24051.413  1
233  24190.609  1
232  23816.381  1
231  24004.36  1
230  24173.611  1
229  24744.625  1
228  23944.875  1
227  24241.37  1
226  23330.716  1
225  24039.658  1
224  24569.673  1
223  23795.683  1
222  23900.102  1
221  24262.11  1
220  23808.01  1
219  23642.013  1
218  24487.892  1
217  25039.987  1
216  24691.168  1
215  24025.167  1
214  24435.389  1
213  23609.27  1
212  24434.946  1
211  24222.099  1
210  23973.574  1
209  24878.221  1
208  24835.144  1
207  25046.31  1
206  25305.471  1
205  25229.069  1
204  25281.116  1
203  24920.775  1
202  25112.232  1
201  25055.223  1
200  24558.01  1
199  25098.109  1
198  24707.71  1
197  24756.507  1
196  24306.115  1
195  24552.004  1
194  24985.422  1
193  25670.486  1
192  25825.509  1
191  25354.713  1
190  25135.57  1
189  26149.119  1
188  26786.239  1
187  26092.446  1
186  25379.167  1
185  26504.06  1
184  25920.013  1
183  26310.963  1
182  25432.256  1
181  26587.496  1
180  26711.749  1
179  25860.004  1
178  25863.519  1
177  27106.082  1
176  26458.439  1
175  26353.697  1
174  26318.739  1
173  26498.896  1
172  27095.987  1
171  26520.959  1
170  26018.457  1
169  26897.611  1
168  27052.708  1
167  26578.065  1
166  26897.504  1
165  27352.479  1
164  28020.714  1
163  27579.63  1
162  27084.251  1
161  26909.171  1
160  26161.012  1
159  26262.095  1
158  28200.866  1
157  29425.4  1
156  30327.815  1
155  29183.06  1
154  28175.642  1
153  27299.676  1
152  29125.9  1
151  28242.729  1
150  28351.394  1
149  27964.049  1
148  27774.289  1
147  27936.064  1
146  27861.761  1
145  28060.612  1
144  27878.722  1
143  27994.092  1
142  28250.311  1
141  29248.06  1
140  28393.8  1
139  27886.501  1
138  28629.227  1
137  28968.461  1
136  28891.959  1
135  29330.058  1
134  29096.439  1
133  30005.706  1
132  30301.426  1
131  29811.835  1
130  29425.274  1
129  29548.008  1
128  29368.086  1
127  30459.812  1
126  31025.958  1
